U[V]	I[nA]	Uret=1.0V
 0.00	90.730
 0.05	80.235
 0.10	73.700
 0.15	70.405
 0.20	69.340
 0.25	69.845
 0.30	71.450
 0.35	73.860
 0.40	76.790
 0.45	80.040
 0.50	83.630
 0.55	87.475
 0.60	91.520
 0.65	95.740
 0.70	100.075
 0.75	104.520
 0.80	109.005
 0.85	113.420
 0.90	117.915
 0.95	122.485
 1.00	127.065
 1.05	131.560
 1.10	136.070
 1.15	140.590
 1.20	145.060
 1.25	149.465
 1.30	153.755
 1.35	157.920
 1.40	161.885
 1.45	165.550
 1.50	169.025
 1.55	172.255
 1.60	175.210
 1.65	177.865
 1.70	180.190
 1.75	182.195
 1.80	183.830
 1.85	185.080
 1.90	185.970
 1.95	186.480
 2.00	186.630
 2.05	186.480
 2.10	186.010
 2.15	185.200
 2.20	184.060
 2.25	182.565
 2.30	180.745
 2.35	178.620
 2.40	176.250
 2.45	173.725
 2.50	170.955
 2.55	167.930
 2.60	164.715
 2.65	161.355
 2.70	157.930
 2.75	154.450
 2.80	150.960
 2.85	147.555
 2.90	144.160
 2.95	140.830
 3.00	137.685
 3.05	134.790
 3.10	132.085
 3.15	129.525
 3.20	127.170
 3.25	125.070
 3.30	123.290
 3.35	121.820
 3.40	120.655
 3.45	119.795
 3.50	119.245
 3.55	119.040
 3.60	119.205
 3.65	119.740
 3.70	120.620
 3.75	121.825
 3.80	123.310
 3.85	125.030
 3.90	127.055
 3.95	129.390
 4.00	131.965
 4.05	134.705
 4.10	137.675
 4.15	140.855
 4.20	144.215
 4.25	147.745
 4.30	151.395
 4.35	155.155
 4.40	158.945
 4.45	162.665
 4.50	166.435
 4.55	170.265
 4.60	174.100
 4.65	177.940
 4.70	181.760
 4.75	185.565
 4.80	189.305
 4.85	192.890
 4.90	196.460
 4.95	200.015
 5.00	203.490
 5.05	206.830
 5.10	210.125
 5.15	213.395
 5.20	216.595
 5.25	219.740
 5.30	222.795
 5.35	225.765
 5.40	228.610
 5.45	231.295
 5.50	233.900
 5.55	236.440
 5.60	238.895
 5.65	241.265
 5.70	243.560
 5.75	245.765
 5.80	247.850
 5.85	249.785
 5.90	251.650
 5.95	253.455
 6.00	255.180
 6.05	256.780
 6.10	258.315
 6.15	259.775
 6.20	261.140
 6.25	262.420
 6.30	263.615
 6.35	264.710
 6.40	265.710
 6.45	266.600
 6.50	267.420
 6.55	268.160
 6.60	268.795
 6.65	269.300
 6.70	269.680
 6.75	269.920
 6.80	270.025
 6.85	269.980
 6.90	269.760
 6.95	269.360
 7.00	268.740
 7.05	267.915
 7.10	266.845
 7.15	265.535
 7.20	264.020
 7.25	262.340
 7.30	260.545
 7.35	258.715
 7.40	256.925
 7.45	255.255
 7.50	253.665
 7.55	252.125
 7.60	250.645
 7.65	249.195
 7.70	247.770
 7.75	246.315
 7.80	244.835
 7.85	243.360
 7.90	241.845
 7.95	240.265
 8.00	238.640
 8.05	237.010
 8.10	235.285
 8.15	233.450
 8.20	231.545
 8.25	229.555
 8.30	227.515
 8.35	225.410
 8.40	223.255
 8.45	221.095
 8.50	218.850
 8.55	216.525
 8.60	214.155
 8.65	211.735
 8.70	209.270
 8.75	206.755
 8.80	204.220
 8.85	201.760
 8.90	199.285
 8.95	196.790
 9.00	194.305
 9.05	191.890
 9.10	189.510
 9.15	187.190
 9.20	184.975
 9.25	182.855
 9.30	180.855
 9.35	178.975
 9.40	177.250
 9.45	175.725
 9.50	174.360
 9.55	173.155
 9.60	172.115
 9.65	171.230
 9.70	170.515
 9.75	169.970
 9.80	169.580
 9.85	169.330
 9.90	169.230
 9.95	169.265
10.00	169.430
10.05	169.710
10.10	170.105
10.15	170.595
10.20	171.170
10.25	171.830
10.30	172.560
10.35	173.360
10.40	174.190
10.45	175.025
10.50	175.880
10.55	176.740
10.60	177.600
10.65	178.460
10.70	179.305
10.75	180.145
10.80	180.950
10.85	181.715
10.90	182.455
10.95	183.190
11.00	183.905
11.05	184.595
11.10	185.270
11.15	185.940
11.20	186.595
11.25	187.235
11.30	187.860
11.35	188.460
11.40	189.020
11.45	189.535
11.50	190.015
11.55	190.480
11.60	190.905
11.65	191.300
11.70	191.670
11.75	192.005
11.80	192.310
11.85	192.575
11.90	192.815
11.95	193.015
12.00	193.180
12.05	193.305
12.10	193.425
12.15	193.530
12.20	193.605
12.25	193.665
12.30	193.700
12.35	193.730
12.40	193.725
12.45	193.710
12.50	193.690
12.55	193.645
12.60	193.585
12.65	193.505
12.70	193.410
12.75	193.295
12.80	193.160
12.85	193.015
12.90	192.855
12.95	192.690
13.00	192.515
13.05	192.345
13.10	192.185
13.15	192.030
13.20	191.890
13.25	191.755
13.30	191.600
13.35	191.435
13.40	191.250
13.45	191.055
13.50	190.835
13.55	190.610
13.60	190.385
13.65	190.160
13.70	189.930
13.75	189.680
13.80	189.420
13.85	189.160
13.90	188.885
13.95	188.590
14.00	188.300
14.05	188.005
14.10	187.695
14.15	187.380
14.20	187.060
14.25	186.735
14.30	186.390
14.35	186.030
14.40	185.650
14.45	185.265
14.50	184.860
14.55	184.420
14.60	183.965
14.65	183.475
14.70	182.955
14.75	182.395
14.80	181.795
14.85	181.180
14.90	180.525
14.95	179.840
15.00	179.120
15.05	178.390
15.10	177.640
15.15	176.825
15.20	173.075
15.25	172.855
15.30	172.795
15.35	172.465
15.40	171.965
15.45	171.385
15.50	170.720
15.55	170.010
15.60	169.275
15.65	168.515
15.70	167.745
15.75	166.995
15.80	166.275
15.85	165.600
15.90	164.960
15.95	164.340
16.00	163.755
16.05	163.220
16.10	162.740
16.15	162.295
16.20	161.880
16.25	161.500
16.30	161.185
16.35	160.925
16.40	160.685
16.45	160.480
16.50	160.330
16.55	160.205
16.60	160.120
16.65	160.060
16.70	160.045
16.75	160.060
16.80	160.145
16.85	160.195
16.90	160.220
16.95	160.275
17.00	160.335
17.05	160.395
17.10	160.465
17.15	160.550
17.20	160.630
17.25	160.705
17.30	160.770
17.35	160.825
17.40	160.865
17.45	160.900
17.50	160.930
17.55	160.935
17.60	160.925
17.65	160.900
17.70	160.870
17.75	160.825
17.80	160.775
17.85	160.725
17.90	160.680
17.95	160.630
18.00	160.550
18.05	160.450
18.10	160.335
18.15	160.205
18.20	160.070
18.25	159.930
18.30	159.785
18.35	159.635
18.40	159.460
18.45	159.275
18.50	159.080
18.55	158.880
18.60	158.660
18.65	158.435
18.70	158.205
18.75	157.960
18.80	157.685
18.85	157.420
18.90	157.155
18.95	156.885
19.00	156.600
19.05	156.325
19.10	156.045
19.15	155.765
19.20	155.475
19.25	155.185
19.30	154.890
19.35	154.580
19.40	154.260
19.45	153.940
19.50	153.620
19.55	153.305
19.60	153.005
19.65	152.705
19.70	152.400
19.75	152.115
19.80	151.830
19.85	151.520
19.90	151.230
19.95	150.940
20.00	150.645
20.05	150.355
20.10	150.065
20.15	149.760
20.20	149.470
20.25	149.200
20.30	148.945
20.35	148.700
20.40	148.465
20.45	148.260
20.50	148.060
20.55	147.860
20.60	147.650
20.65	147.450
20.70	147.270
20.75	147.075
20.80	146.860
20.85	146.650
20.90	146.450
20.95	146.250
21.00	146.040
21.05	145.835
21.10	145.630
21.15	145.425
21.20	145.220
21.25	145.005
21.30	144.780
21.35	144.550
21.40	144.325
21.45	144.090
21.50	143.865
21.55	143.620
21.60	143.390
21.65	143.150
21.70	142.885
21.75	142.625
21.80	142.360
21.85	142.100
21.90	141.835
21.95	141.550
22.00	141.285
22.05	141.015
22.10	140.765
22.15	140.515
22.20	140.235
22.25	139.950
22.30	139.665
22.35	139.370
22.40	139.085
22.45	138.800
22.50	138.530
22.55	138.260
22.60	138.000
22.65	137.750
22.70	137.515
22.75	137.345
22.80	137.190
22.85	137.005
22.90	136.870
22.95	136.710
23.00	136.555
23.05	136.430
23.10	136.320
23.15	136.235
23.20	136.160
23.25	136.085
23.30	136.035
23.35	135.990
23.40	135.955
23.45	135.925
23.50	135.895
23.55	135.865
23.60	135.840
23.65	135.810
23.70	135.780
23.75	135.750
23.80	135.720
23.85	135.685
23.90	135.640
23.95	135.600
24.00	135.550
24.05	135.500
24.10	135.450
24.15	135.390
24.20	135.320
24.25	135.240
24.30	135.155
24.35	135.060
24.40	134.960
24.45	134.865
24.50	134.770
24.55	134.670
24.60	134.560
24.65	134.445
24.70	134.325
24.75	134.205
24.80	134.080
24.85	133.960
24.90	133.835

