U[V]	I[nA]	Uret=1.0V
 0.00	 7.030
 0.05	 5.895
 0.10	 5.625
 0.15	 5.645
 0.20	 5.855
 0.25	 6.190
 0.30	 6.620
 0.35	 7.125
 0.40	 7.670
 0.45	 8.245
 0.50	 8.860
 0.55	 9.510
 0.60	10.195
 0.65	10.900
 0.70	11.635
 0.75	12.380
 0.80	13.140
 0.85	13.900
 0.90	14.670
 0.95	15.460
 1.00	16.250
 1.05	17.025
 1.10	17.800
 1.15	18.570
 1.20	19.325
 1.25	20.060
 1.30	20.760
 1.35	21.420
 1.40	22.020
 1.45	22.550
 1.50	23.025
 1.55	23.430
 1.60	23.755
 1.65	24.005
 1.70	24.180
 1.75	24.260
 1.80	24.260
 1.85	24.190
 1.90	24.040
 1.95	23.815
 2.00	23.505
 2.05	23.160
 2.10	22.745
 2.15	22.265
 2.20	21.725
 2.25	21.125
 2.30	20.480
 2.35	19.780
 2.40	19.045
 2.45	18.290
 2.50	17.500
 2.55	16.665
 2.60	15.795
 2.65	14.910
 2.70	14.025
 2.75	13.135
 2.80	12.240
 2.85	11.390
 2.90	10.555
 2.95	 9.755
 3.00	 8.990
 3.05	 8.295
 3.10	 7.645
 3.15	 7.035
 3.20	 6.485
 3.25	 5.990
 3.30	 5.570
 3.35	 5.210
 3.40	 4.910
 3.45	 4.670
 3.50	 4.495
 3.55	 4.375
 3.60	 4.305
 3.65	 4.285
 3.70	 4.310
 3.75	 4.385
 3.80	 4.480
 3.85	 4.625
 3.90	 4.800
 3.95	 5.015
 4.00	 5.260
 4.05	 5.535
 4.10	 5.850
 4.15	 6.200
 4.20	 6.585
 4.25	 6.990
 4.30	 7.435
 4.35	 7.915
 4.40	 8.405
 4.45	 8.915
 4.50	 9.450
 4.55	10.015
 4.60	10.605
 4.65	11.220
 4.70	11.860
 4.75	12.515
 4.80	13.190
 4.85	13.860
 4.90	14.550
 4.95	15.270
 5.00	15.995
 5.05	16.715
 5.10	17.455
 5.15	18.220
 5.20	18.995
 5.25	19.775
 5.30	20.560
 5.35	21.360
 5.40	22.150
 5.45	22.930
 5.50	23.715
 5.55	24.505
 5.60	25.300
 5.65	26.095
 5.70	26.885
 5.75	27.665
 5.80	28.440
 5.85	29.195
 5.90	29.940
 5.95	30.685
 6.00	31.405
 6.05	32.110
 6.10	32.805
 6.15	33.485
 6.20	34.140
 6.25	34.780
 6.30	35.375
 6.35	35.940
 6.40	36.460
 6.45	36.915
 6.50	37.335
 6.55	37.705
 6.60	38.025
 6.65	38.295
 6.70	38.495
 6.75	38.640
 6.80	38.715
 6.85	38.730
 6.90	38.675
 6.95	38.545
 7.00	38.350
 7.05	38.110
 7.10	37.830
 7.15	37.520
 7.20	37.215
 7.25	36.900
 7.30	36.585
 7.35	36.270
 7.40	35.970
 7.45	35.685
 7.50	35.395
 7.55	35.100
 7.60	34.805
 7.65	34.485
 7.70	34.150
 7.75	33.785
 7.80	33.385
 7.85	32.970
 7.90	32.535
 7.95	32.045
 8.00	31.520
 8.05	30.975
 8.10	30.385
 8.15	29.735
 8.20	29.050
 8.25	28.325
 8.30	27.560
 8.35	26.760
 8.40	25.940
 8.45	25.115
 8.50	24.250
 8.55	23.345
 8.60	22.420
 8.65	21.475
 8.70	20.500
 8.75	19.505
 8.80	18.495
 8.85	17.515
 8.90	16.540
 8.95	15.575
 9.00	14.625
 9.05	13.720
 9.10	12.850
 9.15	12.020
 9.20	11.240
 9.25	10.505
 9.30	 9.830
 9.35	 9.225
 9.40	 8.695
 9.45	 8.255
 9.50	 7.890
 9.55	 7.595
 9.60	 7.365
 9.65	 7.200
 9.70	 7.105
 9.75	 7.055
 9.80	 7.045
 9.85	 7.080
 9.90	 7.150
 9.95	 7.250
10.00	 7.375
10.05	 7.520
10.10	 7.695
10.15	 7.885
10.20	 8.090
10.25	 8.325
10.30	 8.560
10.35	 8.810
10.40	 9.065
10.45	 9.325
10.50	 9.595
10.55	 9.870
10.60	10.150
10.65	10.440
10.70	10.735
10.75	11.025
10.80	11.315
10.85	11.595
10.90	11.885
10.95	12.180
11.00	12.480
11.05	12.775
11.10	13.075
11.15	13.385
11.20	13.690
11.25	14.005
11.30	14.330
11.35	14.645
11.40	14.960
11.45	15.270
11.50	15.590
11.55	15.915
11.60	16.230
11.65	16.550
11.70	16.865
11.75	17.170
11.80	17.470
11.85	17.755
11.90	18.035
11.95	18.315
12.00	18.575
12.05	18.820
12.10	19.060
12.15	19.295
12.20	19.510
12.25	19.715
12.30	19.905
12.35	20.085
12.40	20.240
12.45	20.390
12.50	20.515
12.55	20.630
12.60	20.725
12.65	20.805
12.70	20.870
12.75	20.910
12.80	20.930
12.85	20.930
12.90	20.920
12.95	20.895
13.00	20.840
13.05	20.785
13.10	20.710
13.15	20.620
13.20	20.520
13.25	20.400
13.30	20.270
13.35	20.125
13.40	19.965
13.45	19.800
13.50	19.640
13.55	19.465
13.60	19.280
13.65	19.090
13.70	18.895
13.75	18.690
13.80	18.485
13.85	18.285
13.90	18.085
13.95	17.885
14.00	17.685
14.05	17.495
14.10	17.305
14.15	17.110
14.20	16.910
14.25	16.700
14.30	16.485
14.35	16.250
14.40	16.010
14.45	15.760
14.50	15.495
14.55	15.215
14.60	14.915
14.65	14.590
14.70	14.250
14.75	13.885
14.80	13.490
14.85	13.105
14.90	12.700
14.95	12.270
15.00	11.830
15.05	11.385
15.10	10.930
15.15	10.465
15.20	 9.990
15.25	 9.505
15.30	 9.015
15.35	 8.525
15.40	 8.040
15.45	 7.570
15.50	 7.105
15.55	 6.645
15.60	 6.190
15.65	 5.750
15.70	 5.320
15.75	 4.900
15.80	 4.505
15.85	 4.140
15.90	 3.810
15.95	 3.500
16.00	 3.225
16.05	 2.990
16.10	 2.795
16.15	 2.635
16.20	 2.510
16.25	 2.425
16.30	 2.370
16.35	 2.335
16.40	 2.330
16.45	 2.355
16.50	 2.395
16.55	 2.455
16.60	 2.525
16.65	 2.605
16.70	 2.690
16.75	 2.785
16.80	 2.870
16.85	 2.970
16.90	 3.070
16.95	 3.175
17.00	 3.275
17.05	 3.380
17.10	 3.480
17.15	 3.580
17.20	 3.680
17.25	 3.770
17.30	 3.860
17.35	 3.940
17.40	 4.015
17.45	 4.090
17.50	 4.155
17.55	 4.220
17.60	 4.275
17.65	 4.320
17.70	 4.365
17.75	 4.395
17.80	 4.415
17.85	 4.445
17.90	 4.470
17.95	 4.490
18.00	 4.500
18.05	 4.510
18.10	 4.520
18.15	 4.530
18.20	 4.535
18.25	 4.535
18.30	 4.540
18.35	 4.545
18.40	 4.540
18.45	 4.535
18.50	 4.520
18.55	 4.510
18.60	 4.495
18.65	 4.470
18.70	 4.445
18.75	 4.410
18.80	 4.360
18.85	 4.310
18.90	 4.260
18.95	 4.195
19.00	 4.125
19.05	 4.050
19.10	 3.970
19.15	 3.880
19.20	 3.780
19.25	 3.685
19.30	 3.575
19.35	 3.460
19.40	 3.335
19.45	 3.200
19.50	 3.070
19.55	 2.915
19.60	 2.755
19.65	 2.590
19.70	 2.420
19.75	 2.240
19.80	 2.050
19.85	 1.860
19.90	 1.665
19.95	 1.465
20.00	 1.260
20.05	 1.075
20.10	 0.870
20.15	 0.660
20.20	 0.455
20.25	 0.250
20.30	 0.050
20.35	-0.150
20.40	-0.360
20.45	-0.555
20.50	-0.745
20.55	-0.930
20.60	-1.110
20.65	-1.285
20.70	-1.460
20.75	-1.625
20.80	-1.790
20.85	-1.945
20.90	-2.095
20.95	-2.245
21.00	-2.395
21.05	-2.540
21.10	-2.680
21.15	-2.835
21.20	-2.990
21.25	-3.140
21.30	-3.300
21.35	-3.465
21.40	-3.645
21.45	-3.825
21.50	-4.005
21.55	-4.190
21.60	-4.390
21.65	-4.595
21.70	-4.805
21.75	-5.025
21.80	-5.245
21.85	-5.460
21.90	-5.680
21.95	-5.910
22.00	-6.140
22.05	-6.355
22.10	-6.580
22.15	-6.800
22.20	-7.015
22.25	-7.240
22.30	-7.455
22.35	-7.670
22.40	-7.885
22.45	-8.090
22.50	-8.275
22.55	-8.450
22.60	-8.620
22.65	-8.780
22.70	-8.930
22.75	-9.065
22.80	-9.190
22.85	-9.295
22.90	-9.385
22.95	-9.465
23.00	-9.530
23.05	-9.585
23.10	-9.630
23.15	-9.660
23.20	-9.690
23.25	-9.715
23.30	-9.735
23.35	-9.755
23.40	-9.780
23.45	-9.800
23.50	-9.815
23.55	-9.840
23.60	-9.860
23.65	-9.890
23.70	-9.915
23.75	-9.950
23.80	-9.985
23.85	-10.025
23.90	-10.055
23.95	-10.095
24.00	-10.145
24.05	-10.200
24.10	-10.255
24.15	-10.320
24.20	-10.385
24.25	-10.460
24.30	-10.535
24.35	-10.615
24.40	-10.705
24.45	-10.785
24.50	-10.880
24.55	-10.975
24.60	-11.070
24.65	-11.175
24.70	-11.280
24.75	-11.390
24.80	-11.505
24.85	-11.610
24.90	-11.720

